# v / cm^-1  DOS / states (q-point cm^-1)^-1
  -120.000    0.0064
  -119.000    0.0065
  -118.000    0.0065
  -117.000    0.0066
  -116.000    0.0066
  -115.000    0.0067
  -114.000    0.0068
  -113.000    0.0068
  -112.000    0.0069
  -111.000    0.0070
  -110.000    0.0070
  -109.000    0.0071
  -108.000    0.0072
  -107.000    0.0073
  -106.000    0.0073
  -105.000    0.0074
  -104.000    0.0075
  -103.000    0.0076
  -102.000    0.0076
  -101.000    0.0077
  -100.000    0.0078
   -99.000    0.0079
   -98.000    0.0080
   -97.000    0.0081
   -96.000    0.0082
   -95.000    0.0082
   -94.000    0.0083
   -93.000    0.0084
   -92.000    0.0085
   -91.000    0.0086
   -90.000    0.0087
   -89.000    0.0088
   -88.000    0.0089
   -87.000    0.0091
   -86.000    0.0092
   -85.000    0.0093
   -84.000    0.0094
   -83.000    0.0095
   -82.000    0.0096
   -81.000    0.0098
   -80.000    0.0099
   -79.000    0.0100
   -78.000    0.0101
   -77.000    0.0103
   -76.000    0.0104
   -75.000    0.0106
   -74.000    0.0107
   -73.000    0.0109
   -72.000    0.0110
   -71.000    0.0112
   -70.000    0.0113
   -69.000    0.0115
   -68.000    0.0117
   -67.000    0.0119
   -66.000    0.0120
   -65.000    0.0122
   -64.000    0.0124
   -63.000    0.0126
   -62.000    0.0128
   -61.000    0.0130
   -60.000    0.0132
   -59.000    0.0135
   -58.000    0.0137
   -57.000    0.0139
   -56.000    0.0142
   -55.000    0.0144
   -54.000    0.0147
   -53.000    0.0149
   -52.000    0.0152
   -51.000    0.0155
   -50.000    0.0158
   -49.000    0.0161
   -48.000    0.0165
   -47.000    0.0168
   -46.000    0.0171
   -45.000    0.0175
   -44.000    0.0179
   -43.000    0.0183
   -42.000    0.0187
   -41.000    0.0191
   -40.000    0.0196
   -39.000    0.0200
   -38.000    0.0205
   -37.000    0.0210
   -36.000    0.0216
   -35.000    0.0221
   -34.000    0.0227
   -33.000    0.0234
   -32.000    0.0241
   -31.000    0.0248
   -30.000    0.0255
   -29.000    0.0263
   -28.000    0.0272
   -27.000    0.0281
   -26.000    0.0291
   -25.000    0.0302
   -24.000    0.0314
   -23.000    0.0327
   -22.000    0.0341
   -21.000    0.0357
   -20.000    0.0374
   -19.000    0.0394
   -18.000    0.0416
   -17.000    0.0441
   -16.000    0.0471
   -15.000    0.0505
   -14.000    0.0546
   -13.000    0.0593
   -12.000    0.0649
   -11.000    0.0711
   -10.000    0.0779
    -9.000    0.0847
    -8.000    0.0911
    -7.000    0.0967
    -6.000    0.1013
    -5.000    0.1050
    -4.000    0.1081
    -3.000    0.1111
    -2.000    0.1143
    -1.000    0.1184
     0.000    0.1238
     1.000    0.1306
     2.000    0.1388
     3.000    0.1484
     4.000    0.1590
     5.000    0.1705
     6.000    0.1827
     7.000    0.1956
     8.000    0.2093
     9.000    0.2240
    10.000    0.2398
    11.000    0.2573
    12.000    0.2772
    13.000    0.3000
    14.000    0.3268
    15.000    0.3583
    16.000    0.3948
    17.000    0.4354
    18.000    0.4783
    19.000    0.5201
    20.000    0.5580
    21.000    0.5898
    22.000    0.6150
    23.000    0.6335
    24.000    0.6454
    25.000    0.6519
    26.000    0.6547
    27.000    0.6554
    28.000    0.6551
    29.000    0.6553
    30.000    0.6573
    31.000    0.6627
    32.000    0.6715
    33.000    0.6833
    34.000    0.6966
    35.000    0.7105
    36.000    0.7240
    37.000    0.7365
    38.000    0.7474
    39.000    0.7563
    40.000    0.7627
    41.000    0.7660
    42.000    0.7652
    43.000    0.7598
    44.000    0.7502
    45.000    0.7378
    46.000    0.7244
    47.000    0.7111
    48.000    0.6985
    49.000    0.6867
    50.000    0.6758
    51.000    0.6663
    52.000    0.6586
    53.000    0.6527
    54.000    0.6477
    55.000    0.6424
    56.000    0.6361
    57.000    0.6288
    58.000    0.6214
    59.000    0.6156
    60.000    0.6124
    61.000    0.6122
    62.000    0.6141
    63.000    0.6164
    64.000    0.6173
    65.000    0.6156
    66.000    0.6105
    67.000    0.6014
    68.000    0.5883
    69.000    0.5716
    70.000    0.5527
    71.000    0.5336
    72.000    0.5165
    73.000    0.5036
    74.000    0.4963
    75.000    0.4952
    76.000    0.4994
    77.000    0.5059
    78.000    0.5109
    79.000    0.5113
    80.000    0.5064
    81.000    0.4974
    82.000    0.4866
    83.000    0.4759
    84.000    0.4671
    85.000    0.4615
    86.000    0.4606
    87.000    0.4658
    88.000    0.4779
    89.000    0.4969
    90.000    0.5212
    91.000    0.5472
    92.000    0.5706
    93.000    0.5889
    94.000    0.6032
    95.000    0.6170
    96.000    0.6334
    97.000    0.6532
    98.000    0.6748
    99.000    0.6958
   100.000    0.7153
   101.000    0.7346
   102.000    0.7553
   103.000    0.7774
   104.000    0.7993
   105.000    0.8177
   106.000    0.8296
   107.000    0.8331
   108.000    0.8276
   109.000    0.8142
   110.000    0.7950
   111.000    0.7726
   112.000    0.7498
   113.000    0.7292
   114.000    0.7133
   115.000    0.7035
   116.000    0.7005
   117.000    0.7039
   118.000    0.7124
   119.000    0.7242
   120.000    0.7372
   121.000    0.7505
   122.000    0.7635
   123.000    0.7762
   124.000    0.7873
   125.000    0.7952
   126.000    0.7983
   127.000    0.7960
   128.000    0.7881
   129.000    0.7752
   130.000    0.7585
   131.000    0.7401
   132.000    0.7224
   133.000    0.7072
   134.000    0.6952
   135.000    0.6857
   136.000    0.6780
   137.000    0.6716
   138.000    0.6658
   139.000    0.6606
   140.000    0.6561
   141.000    0.6528
   142.000    0.6513
   143.000    0.6519
   144.000    0.6543
   145.000    0.6583
   146.000    0.6635
   147.000    0.6695
   148.000    0.6758
   149.000    0.6816
   150.000    0.6862
   151.000    0.6887
   152.000    0.6882
   153.000    0.6840
   154.000    0.6754
   155.000    0.6628
   156.000    0.6472
   157.000    0.6297
   158.000    0.6106
   159.000    0.5896
   160.000    0.5663
   161.000    0.5410
   162.000    0.5145
   163.000    0.4884
   164.000    0.4648
   165.000    0.4458
   166.000    0.4329
   167.000    0.4268
   168.000    0.4273
   169.000    0.4332
   170.000    0.4425
   171.000    0.4529
   172.000    0.4630
   173.000    0.4719
   174.000    0.4793
   175.000    0.4841
   176.000    0.4854
   177.000    0.4832
   178.000    0.4790
   179.000    0.4755
   180.000    0.4751
   181.000    0.4787
   182.000    0.4859
   183.000    0.4943
   184.000    0.5009
   185.000    0.5043
   186.000    0.5046
   187.000    0.5036
   188.000    0.5026
   189.000    0.5029
   190.000    0.5056
   191.000    0.5121
   192.000    0.5232
   193.000    0.5391
   194.000    0.5584
   195.000    0.5791
   196.000    0.5991
   197.000    0.6169
   198.000    0.6312
   199.000    0.6406
   200.000    0.6443
   201.000    0.6426
   202.000    0.6369
   203.000    0.6292
   204.000    0.6206
   205.000    0.6104
   206.000    0.5969
   207.000    0.5784
   208.000    0.5546
   209.000    0.5272
   210.000    0.4990
   211.000    0.4725
   212.000    0.4492
   213.000    0.4295
   214.000    0.4136
   215.000    0.4017
   216.000    0.3942
   217.000    0.3915
   218.000    0.3938
   219.000    0.4008
   220.000    0.4123
   221.000    0.4276
   222.000    0.4460
   223.000    0.4663
   224.000    0.4873
   225.000    0.5076
   226.000    0.5265
   227.000    0.5434
   228.000    0.5577
   229.000    0.5673
   230.000    0.5694
   231.000    0.5617
   232.000    0.5458
   233.000    0.5272
   234.000    0.5121
   235.000    0.5044
   236.000    0.5052
   237.000    0.5128
   238.000    0.5237
   239.000    0.5339
   240.000    0.5399
   241.000    0.5411
   242.000    0.5403
   243.000    0.5423
   244.000    0.5521
   245.000    0.5738
   246.000    0.6101
   247.000    0.6625
   248.000    0.7303
   249.000    0.8088
   250.000    0.8869
   251.000    0.9481
   252.000    0.9764
   253.000    0.9656
   254.000    0.9224
   255.000    0.8612
   256.000    0.7959
   257.000    0.7359
   258.000    0.6855
   259.000    0.6460
   260.000    0.6173
   261.000    0.5982
   262.000    0.5857
   263.000    0.5758
   264.000    0.5650
   265.000    0.5517
   266.000    0.5357
   267.000    0.5177
   268.000    0.4983
   269.000    0.4778
   270.000    0.4562
   271.000    0.4330
   272.000    0.4079
   273.000    0.3805
   274.000    0.3509
   275.000    0.3196
   276.000    0.2878
   277.000    0.2572
   278.000    0.2293
   279.000    0.2050
   280.000    0.1847
   281.000    0.1682
   282.000    0.1548
   283.000    0.1441
   284.000    0.1356
   285.000    0.1289
   286.000    0.1237
   287.000    0.1197
   288.000    0.1169
   289.000    0.1151
   290.000    0.1142
   291.000    0.1142
   292.000    0.1151
   293.000    0.1170
   294.000    0.1197
   295.000    0.1236
   296.000    0.1287
   297.000    0.1351
   298.000    0.1433
   299.000    0.1534
   300.000    0.1659
   301.000    0.1816
   302.000    0.2011
   303.000    0.2255
   304.000    0.2561
   305.000    0.2947
   306.000    0.3430
   307.000    0.4024
   308.000    0.4729
   309.000    0.5509
   310.000    0.6282
   311.000    0.6931
   312.000    0.7353
   313.000    0.7502
   314.000    0.7390
   315.000    0.7073
   316.000    0.6632
   317.000    0.6150
   318.000    0.5690
   319.000    0.5296
   320.000    0.5006
   321.000    0.4853
   322.000    0.4858
   323.000    0.5022
   324.000    0.5322
   325.000    0.5696
   326.000    0.6050
   327.000    0.6284
   328.000    0.6330
   329.000    0.6175
   330.000    0.5856
   331.000    0.5445
   332.000    0.5019
   333.000    0.4631
   334.000    0.4300
   335.000    0.4020
   336.000    0.3777
   337.000    0.3555
   338.000    0.3347
   339.000    0.3151
   340.000    0.2962
   341.000    0.2778
   342.000    0.2595
   343.000    0.2412
   344.000    0.2233
   345.000    0.2059
   346.000    0.1896
   347.000    0.1747
   348.000    0.1611
   349.000    0.1490
   350.000    0.1382
   351.000    0.1287
   352.000    0.1203
   353.000    0.1129
   354.000    0.1065
   355.000    0.1010
   356.000    0.0962
   357.000    0.0922
   358.000    0.0889
   359.000    0.0863
   360.000    0.0844
   361.000    0.0831
   362.000    0.0824
   363.000    0.0824
   364.000    0.0829
   365.000    0.0840
   366.000    0.0858
   367.000    0.0882
   368.000    0.0913
   369.000    0.0954
   370.000    0.1004
   371.000    0.1067
   372.000    0.1145
   373.000    0.1242
   374.000    0.1362
   375.000    0.1512
   376.000    0.1700
   377.000    0.1935
   378.000    0.2229
   379.000    0.2589
   380.000    0.3014
   381.000    0.3484
   382.000    0.3954
   383.000    0.4365
   384.000    0.4660
   385.000    0.4811
   386.000    0.4823
   387.000    0.4717
   388.000    0.4515
   389.000    0.4237
   390.000    0.3901
   391.000    0.3538
   392.000    0.3183
   393.000    0.2866
   394.000    0.2607
   395.000    0.2407
   396.000    0.2263
   397.000    0.2167
   398.000    0.2111
   399.000    0.2089
   400.000    0.2097
   401.000    0.2132
   402.000    0.2191
   403.000    0.2276
   404.000    0.2385
   405.000    0.2522
   406.000    0.2687
   407.000    0.2883
   408.000    0.3117
   409.000    0.3395
   410.000    0.3727
   411.000    0.4126
   412.000    0.4606
   413.000    0.5178
   414.000    0.5840
   415.000    0.6567
   416.000    0.7302
   417.000    0.7954
   418.000    0.8416
   419.000    0.8593
   420.000    0.8428
   421.000    0.7936
   422.000    0.7222
   423.000    0.6432
   424.000    0.5682
   425.000    0.5038
   426.000    0.4519
   427.000    0.4125
   428.000    0.3847
   429.000    0.3676
   430.000    0.3606
   431.000    0.3637
   432.000    0.3776
   433.000    0.4031
   434.000    0.4412
   435.000    0.4920
   436.000    0.5534
   437.000    0.6198
   438.000    0.6815
   439.000    0.7282
   440.000    0.7525
   441.000    0.7522
   442.000    0.7270
   443.000    0.6783
   444.000    0.6112
   445.000    0.5353
   446.000    0.4611
   447.000    0.3953
   448.000    0.3406
   449.000    0.2966
   450.000    0.2619
   451.000    0.2347
   452.000    0.2135
   453.000    0.1970
   454.000    0.1844
   455.000    0.1749
   456.000    0.1681
   457.000    0.1635
   458.000    0.1609
   459.000    0.1602
   460.000    0.1614
   461.000    0.1645
   462.000    0.1695
   463.000    0.1768
   464.000    0.1866
   465.000    0.1994
   466.000    0.2158
   467.000    0.2364
   468.000    0.2618
   469.000    0.2927
   470.000    0.3290
   471.000    0.3706
   472.000    0.4167
   473.000    0.4665
   474.000    0.5193
   475.000    0.5746
   476.000    0.6329
   477.000    0.6950
   478.000    0.7613
   479.000    0.8300
   480.000    0.8963
   481.000    0.9538
   482.000    0.9958
   483.000    1.0169
   484.000    1.0146
   485.000    0.9908
   486.000    0.9518
   487.000    0.9057
   488.000    0.8594
   489.000    0.8168
   490.000    0.7786
   491.000    0.7437
   492.000    0.7106
   493.000    0.6790
   494.000    0.6502
   495.000    0.6261
   496.000    0.6084
   497.000    0.5967
   498.000    0.5893
   499.000    0.5839
   500.000    0.5806
   501.000    0.5822
   502.000    0.5907
   503.000    0.6043
   504.000    0.6182
   505.000    0.6279
   506.000    0.6313
   507.000    0.6283
   508.000    0.6174
   509.000    0.5956
   510.000    0.5619
   511.000    0.5189
   512.000    0.4708
   513.000    0.4210
   514.000    0.3718
   515.000    0.3250
   516.000    0.2827
   517.000    0.2460
   518.000    0.2153
   519.000    0.1901
   520.000    0.1696
   521.000    0.1528
   522.000    0.1391
   523.000    0.1277
   524.000    0.1183
   525.000    0.1104
   526.000    0.1038
   527.000    0.0982
   528.000    0.0935
   529.000    0.0895
   530.000    0.0861
   531.000    0.0833
   532.000    0.0811
   533.000    0.0792
   534.000    0.0778
   535.000    0.0767
   536.000    0.0760
   537.000    0.0757
   538.000    0.0758
   539.000    0.0761
   540.000    0.0769
   541.000    0.0781
   542.000    0.0797
   543.000    0.0818
   544.000    0.0844
   545.000    0.0876
   546.000    0.0915
   547.000    0.0963
   548.000    0.1019
   549.000    0.1088
   550.000    0.1171
   551.000    0.1271
   552.000    0.1393
   553.000    0.1543
   554.000    0.1727
   555.000    0.1956
   556.000    0.2243
   557.000    0.2602
   558.000    0.3053
   559.000    0.3610
   560.000    0.4282
   561.000    0.5054
   562.000    0.5873
   563.000    0.6646
   564.000    0.7246
   565.000    0.7541
   566.000    0.7448
   567.000    0.6979
   568.000    0.6248
   569.000    0.5417
   570.000    0.4623
   571.000    0.3940
   572.000    0.3388
   573.000    0.2958
   574.000    0.2632
   575.000    0.2392
   576.000    0.2223
   577.000    0.2114
   578.000    0.2059
   579.000    0.2054
   580.000    0.2099
   581.000    0.2197
   582.000    0.2354
   583.000    0.2574
   584.000    0.2860
   585.000    0.3204
   586.000    0.3585
   587.000    0.3973
   588.000    0.4336
   589.000    0.4657
   590.000    0.4931
   591.000    0.5165
   592.000    0.5367
   593.000    0.5544
   594.000    0.5683
   595.000    0.5752
   596.000    0.5701
   597.000    0.5489
   598.000    0.5113
   599.000    0.4612
   600.000    0.4048
   601.000    0.3484
   602.000    0.2969
   603.000    0.2524
   604.000    0.2156
   605.000    0.1858
   606.000    0.1617
   607.000    0.1422
   608.000    0.1264
   609.000    0.1134
   610.000    0.1027
   611.000    0.0938
   612.000    0.0863
   613.000    0.0799
   614.000    0.0745
   615.000    0.0698
   616.000    0.0657
   617.000    0.0622
   618.000    0.0591
   619.000    0.0564
   620.000    0.0540
   621.000    0.0519
   622.000    0.0501
   623.000    0.0484
   624.000    0.0470
   625.000    0.0457
   626.000    0.0445
   627.000    0.0435
   628.000    0.0426
   629.000    0.0419
   630.000    0.0412
   631.000    0.0406
   632.000    0.0401
   633.000    0.0397
   634.000    0.0394
   635.000    0.0391
   636.000    0.0389
   637.000    0.0388
   638.000    0.0388
   639.000    0.0388
   640.000    0.0388
   641.000    0.0390
   642.000    0.0392
   643.000    0.0394
   644.000    0.0397
   645.000    0.0401
   646.000    0.0406
   647.000    0.0411
   648.000    0.0417
   649.000    0.0424
   650.000    0.0432
   651.000    0.0440
   652.000    0.0450
   653.000    0.0460
   654.000    0.0471
   655.000    0.0484
   656.000    0.0498
   657.000    0.0513
   658.000    0.0530
   659.000    0.0548
   660.000    0.0568
   661.000    0.0591
   662.000    0.0615
   663.000    0.0642
   664.000    0.0672
   665.000    0.0705
   666.000    0.0742
   667.000    0.0783
   668.000    0.0828
   669.000    0.0880
   670.000    0.0938
   671.000    0.1003
   672.000    0.1077
   673.000    0.1162
   674.000    0.1259
   675.000    0.1372
   676.000    0.1503
   677.000    0.1657
   678.000    0.1839
   679.000    0.2056
   680.000    0.2317
   681.000    0.2635
   682.000    0.3025
   683.000    0.3507
   684.000    0.4106
   685.000    0.4849
   686.000    0.5758
   687.000    0.6835
   688.000    0.8031
   689.000    0.9228
   690.000    1.0273
   691.000    1.1075
   692.000    1.1656
   693.000    1.2062
   694.000    1.2270
   695.000    1.2206
   696.000    1.1852
   697.000    1.1306
   698.000    1.0750
   699.000    1.0340
   700.000    1.0126
   701.000    1.0048
   702.000    0.9992
   703.000    0.9862
   704.000    0.9605
   705.000    0.9198
   706.000    0.8633
   707.000    0.7939
   708.000    0.7201
   709.000    0.6521
   710.000    0.5973
   711.000    0.5579
   712.000    0.5311
   713.000    0.5104
   714.000    0.4877
   715.000    0.4571
   716.000    0.4173
   717.000    0.3715
   718.000    0.3249
   719.000    0.2819
   720.000    0.2448
   721.000    0.2138
   722.000    0.1883
   723.000    0.1674
   724.000    0.1501
   725.000    0.1359
   726.000    0.1240
   727.000    0.1139
   728.000    0.1053
   729.000    0.0980
   730.000    0.0916
   731.000    0.0861
   732.000    0.0812
   733.000    0.0770
   734.000    0.0732
   735.000    0.0699
   736.000    0.0669
   737.000    0.0643
   738.000    0.0620
   739.000    0.0599
   740.000    0.0580
   741.000    0.0563
   742.000    0.0549
   743.000    0.0535
   744.000    0.0524
   745.000    0.0513
   746.000    0.0504
   747.000    0.0496
   748.000    0.0490
   749.000    0.0484
   750.000    0.0479
   751.000    0.0476
   752.000    0.0473
   753.000    0.0471
   754.000    0.0471
   755.000    0.0471
   756.000    0.0472
   757.000    0.0474
   758.000    0.0476
   759.000    0.0480
   760.000    0.0485
   761.000    0.0491
   762.000    0.0498
   763.000    0.0506
   764.000    0.0516
   765.000    0.0527
   766.000    0.0539
   767.000    0.0553
   768.000    0.0569
   769.000    0.0587
   770.000    0.0607
   771.000    0.0630
   772.000    0.0655
   773.000    0.0684
   774.000    0.0716
   775.000    0.0753
   776.000    0.0796
   777.000    0.0844
   778.000    0.0899
   779.000    0.0964
   780.000    0.1039
   781.000    0.1126
   782.000    0.1230
   783.000    0.1355
   784.000    0.1504
   785.000    0.1686
   786.000    0.1909
   787.000    0.2184
   788.000    0.2519
   789.000    0.2923
   790.000    0.3392
   791.000    0.3900
   792.000    0.4401
   793.000    0.4846
   794.000    0.5208
   795.000    0.5487
   796.000    0.5692
   797.000    0.5844
   798.000    0.5976
   799.000    0.6123
   800.000    0.6308
   801.000    0.6531
   802.000    0.6792
   803.000    0.7105
   804.000    0.7497
   805.000    0.7997
   806.000    0.8602
   807.000    0.9262
   808.000    0.9858
   809.000    1.0201
   810.000    1.0078
   811.000    0.9420
   812.000    0.8378
   813.000    0.7206
   814.000    0.6104
   815.000    0.5165
   816.000    0.4406
   817.000    0.3809
   818.000    0.3345
   819.000    0.2989
   820.000    0.2719
   821.000    0.2519
   822.000    0.2377
   823.000    0.2288
   824.000    0.2245
   825.000    0.2248
   826.000    0.2300
   827.000    0.2403
   828.000    0.2565
   829.000    0.2790
